File: JAG XRF Scan 1 Tails.csv
Bruker AXS HMP Instrument Tools Complete CSV
FileName,C:\Users\skel2534\Desktop\Sydney Grammar\Jack Glass\JAG XRF Scan 1 Tails.pdz
SerialString,
TubeTargetElement,45
NumberOfSpectra,1
SampleID,
AcquisitionDateTime,11/05/2021 11:48:59 AM
TotalElapsedTimeInSeconds,32
AnodeTakeOffAngle,53
SampleIncidenceAngle,45
BeThicknessInMicroMeters,75
SampleTakeOffAngle,65
SpotSizeUsed,-1
XrayVoltageInkV,40,
XrayFilamentCurrentInMicroAmps,3.2,
RawCounts,274401,
ValidCounts,206930,
eVPerChannel,20,
StartingKeV,0,
ZeroOffsetInKeV,0,
StartingChannel,0,
NumberOfChannels,2048,
CountsPerSecond,8851.646,
XilinxFirmwareVersion,808,
IlluminationID,,
Filter1ElementAtomicNum,22,
Filter1Thickness,25,
Filter2ElementAtomicNum,13,
Filter2Thickness,300,
Filter3ElementAtomicNum,0,
Filter3Thickness,0,
AcquisitionDateTime,11/05/2021 11:48:59 AM,
LiveTimeInSeconds,24.996,
DeadTimeInSeconds,5.973001,
ResetTimeInSeconds,0.145,
DetectorTempInC,-40.5,
AmbientTempInF,94.4,
NosePressureInMilliBars,,
NoseTemperatureInC,,
ActiveTimeInSeconds,31,
PacketTimeInSeconds,31.145,
CommunicationTimeInSeconds,0.8549995,
ElapsedClockTimeInSeconds,32,
Spectrum:ChannelNumber,ChannelStartInKeV,ChannelCount
1,0,4
8,0.14,2
15,0.28,0
22,0.42,0
29,0.56,3
36,0.7,6
43,0.84,10
50,0.98,6
57,1.12,8
64,1.26,5
71,1.4,11
78,1.54,10
85,1.68,5
92,1.82,6
99,1.96,7
106,2.1,6
113,2.24,8
120,2.38,6
127,2.52,14
134,2.66,15
141,2.8,5
148,2.94,6
155,3.08,5
162,3.22,5
169,3.36,7
176,3.5,7
183,3.64,5
190,3.78,5
197,3.92,4
204,4.06,2
211,4.2,1
218,4.34,2
225,4.48,1
232,4.62,1
239,4.76,1
246,4.9,6
253,5.04,9
260,5.18,7
267,5.32,6
274,5.46,10
281,5.6,6
288,5.74,2
295,5.88,3
302,6.02,3
309,6.16,17
316,6.3,69
323,6.44,49
330,6.58,16
337,6.72,6
344,6.86,12
351,7,23
358,7.14,14
365,7.28,9
372,7.42,18
379,7.56,35
386,7.7,58
393,7.84,1295
400,7.98,10141
407,8.12,9439
414,8.26,1063
421,8.4,68
428,8.54,44
435,8.68,214
442,8.82,1462
449,8.96,1739
456,9.1,346
463,9.24,20
470,9.38,6
477,9.52,2
484,9.66,8
491,9.8,3
498,9.94,2
505,10.08,1
512,10.22,5
519,10.36,60
526,10.5,268
533,10.64,180
540,10.78,31
547,10.92,13
554,11.06,105
561,11.2,284
568,11.34,120
575,11.48,13
582,11.62,6
589,11.76,13
596,11.9,10
603,12.04,10
610,12.18,18
617,12.32,44
624,12.46,109
631,12.6,209
638,12.74,153
645,12.88,41
652,13.02,15
659,13.16,9
666,13.3,10
673,13.44,4
680,13.58,4
687,13.72,3
694,13.86,1
701,14,4
708,14.14,13
715,14.28,13
722,14.42,8
729,14.56,10
736,14.7,30
743,14.84,37
750,14.98,7
757,15.12,22
764,15.26,17
771,15.4,8
778,15.54,6
785,15.68,18
792,15.82,13
799,15.96,48
806,16.1,76
813,16.24,34
820,16.38,17
827,16.52,7
834,16.66,8
841,16.8,14
848,16.94,35
855,17.08,16
862,17.22,8
869,17.36,10
876,17.5,6
883,17.64,10
890,17.78,7
897,17.92,14
904,18.06,4
911,18.2,7
918,18.34,8
925,18.48,11
932,18.62,14
939,18.76,16
946,18.9,18
953,19.04,11
960,19.18,14
967,19.32,20
974,19.46,12
981,19.6,17
988,19.74,12
995,19.88,21
1002,20.02,34
1009,20.16,32
1016,20.3,35
1023,20.44,17
1030,20.58,13
1037,20.72,17
1044,20.86,11
1051,21,7
1058,21.14,11
1065,21.28,9
1072,21.42,10
1079,21.56,8
1086,21.7,9
1093,21.84,23
1100,21.98,41
1107,22.12,48
1114,22.26,33
1121,22.4,13
1128,22.54,10
1135,22.68,12
1142,22.82,16
1149,22.96,8
1156,23.1,7
1163,23.24,9
1170,23.38,9
1177,23.52,10
1184,23.66,7
1191,23.8,7
1198,23.94,7
1205,24.08,6
1212,24.22,8
1219,24.36,5
1226,24.5,7
1233,24.64,5
1240,24.78,8
1247,24.92,24
1254,25.06,22
1261,25.2,39
1268,25.34,29
1275,25.48,17
1282,25.62,11
1289,25.76,6
1296,25.9,10
1303,26.04,13
1310,26.18,7
1317,26.32,3
1324,26.46,8
1331,26.6,6
1338,26.74,7
1345,26.88,4
1352,27.02,5
1359,27.16,4
1366,27.3,6
1373,27.44,7
1380,27.58,5
1387,27.72,12
1394,27.86,4
1401,28,1
1408,28.14,7
1415,28.28,8
1422,28.42,11
1429,28.56,12
1436,28.7,15
1443,28.84,6
1450,28.98,4
1457,29.12,4
1464,29.26,6
1471,29.4,7
1478,29.54,3
1485,29.68,10
1492,29.82,1
1499,29.96,3
1506,30.1,6
1513,30.24,5
1520,30.38,6
1527,30.52,2
1534,30.66,3
1541,30.8,4
1548,30.94,2
1555,31.08,5
1562,31.22,5
1569,31.36,3
1576,31.5,5
1583,31.64,6
1590,31.78,5
1597,31.92,6
1604,32.06,3
1611,32.2,1
1618,32.34,1
1625,32.48,8
1632,32.62,2
1639,32.76,2
1646,32.9,2
1653,33.04,5
1660,33.18,4
1667,33.32,2
1674,33.46,3
1681,33.6,6
1688,33.74,2
1695,33.88,2
1702,34.02,1
1709,34.16,2
1716,34.3,5
1723,34.44,1
1730,34.58,3
1737,34.72,2
1744,34.86,2
1751,35,2
1758,35.14,3
1765,35.28,3
1772,35.42,2
1779,35.56,0
1786,35.7,0
1793,35.84,1
1800,35.98,1
1807,36.12,4
1814,36.26,0
1821,36.4,3
1828,36.54,1
1835,36.68,0
1842,36.82,0
1849,36.96,2
1856,37.1,2
1863,37.24,2
1870,37.38,1
1877,37.52,1
1884,37.66,1
1891,37.8,2
1898,37.94,1
1905,38.08,1
1912,38.22,0
1919,38.36,0
1926,38.5,1
1933,38.64,0
1940,38.78,0
1947,38.92,1
1954,39.06,0
1961,39.2,1
1968,39.34,0
1975,39.48,0
1982,39.62,0
1989,39.76,0
1996,39.9,0
2003,40.04,0
2010,40.18,0
2017,40.32,0
2024,40.46,0
2031,40.6,0
2038,40.74,0
2045,40.88,0
2048,40.94,0