File: JAG XRF Scan 2 Tails.csv
Bruker AXS HMP Instrument Tools Complete CSV
FileName,C:\Users\skel2534\Desktop\Sydney Grammar\Jack Glass\JAG XRF Scan 2 Tails.pdz
SerialString,
TubeTargetElement,45
NumberOfSpectra,1
SampleID,
AcquisitionDateTime,11/05/2021 11:50:25 AM
TotalElapsedTimeInSeconds,32
AnodeTakeOffAngle,53
SampleIncidenceAngle,45
BeThicknessInMicroMeters,75
SampleTakeOffAngle,65
SpotSizeUsed,-1
XrayVoltageInkV,40,
XrayFilamentCurrentInMicroAmps,3.2,
RawCounts,272715,
ValidCounts,206250,
eVPerChannel,20,
StartingKeV,0,
ZeroOffsetInKeV,0,
StartingChannel,0,
NumberOfChannels,2048,
CountsPerSecond,8797.258,
XilinxFirmwareVersion,808,
IlluminationID,,
Filter1ElementAtomicNum,22,
Filter1Thickness,25,
Filter2ElementAtomicNum,13,
Filter2Thickness,300,
Filter3ElementAtomicNum,0,
Filter3Thickness,0,
AcquisitionDateTime,11/05/2021 11:50:25 AM,
LiveTimeInSeconds,25.026,
DeadTimeInSeconds,5.943001,
ResetTimeInSeconds,0.136,
DetectorTempInC,-40.5,
AmbientTempInF,94.4,
NosePressureInMilliBars,,
NoseTemperatureInC,,
ActiveTimeInSeconds,31,
PacketTimeInSeconds,31.136,
CommunicationTimeInSeconds,0.8640003,
ElapsedClockTimeInSeconds,32,
Spectrum:ChannelNumber,ChannelStartInKeV,ChannelCount
1,0,8
8,0.14,1
15,0.28,0
22,0.42,0
29,0.56,1
36,0.7,5
43,0.84,10
50,0.98,4
57,1.12,9
64,1.26,8
71,1.4,16
78,1.54,10
85,1.68,5
92,1.82,5
99,1.96,4
106,2.1,8
113,2.24,6
120,2.38,16
127,2.52,18
134,2.66,23
141,2.8,5
148,2.94,7
155,3.08,4
162,3.22,3
169,3.36,6
176,3.5,4
183,3.64,2
190,3.78,7
197,3.92,4
204,4.06,2
211,4.2,6
218,4.34,3
225,4.48,3
232,4.62,1
239,4.76,2
246,4.9,9
253,5.04,9
260,5.18,6
267,5.32,6
274,5.46,3
281,5.6,8
288,5.74,4
295,5.88,3
302,6.02,3
309,6.16,17
316,6.3,39
323,6.44,23
330,6.58,7
337,6.72,9
344,6.86,11
351,7,15
358,7.14,7
365,7.28,4
372,7.42,21
379,7.56,33
386,7.7,67
393,7.84,1322
400,7.98,10186
407,8.12,8949
414,8.26,983
421,8.4,51
428,8.54,41
435,8.68,224
442,8.82,1391
449,8.96,1763
456,9.1,292
463,9.24,36
470,9.38,6
477,9.52,2
484,9.66,2
491,9.8,0
498,9.94,2
505,10.08,1
512,10.22,11
519,10.36,86
526,10.5,288
533,10.64,210
540,10.78,31
547,10.92,8
554,11.06,92
561,11.2,272
568,11.34,97
575,11.48,22
582,11.62,4
589,11.76,6
596,11.9,6
603,12.04,9
610,12.18,17
617,12.32,40
624,12.46,125
631,12.6,284
638,12.74,160
645,12.88,31
652,13.02,12
659,13.16,12
666,13.3,8
673,13.44,4
680,13.58,5
687,13.72,2
694,13.86,0
701,14,8
708,14.14,3
715,14.28,6
722,14.42,4
729,14.56,11
736,14.7,30
743,14.84,28
750,14.98,26
757,15.12,17
764,15.26,16
771,15.4,9
778,15.54,11
785,15.68,10
792,15.82,11
799,15.96,45
806,16.1,83
813,16.24,41
820,16.38,11
827,16.52,11
834,16.66,4
841,16.8,23
848,16.94,22
855,17.08,18
862,17.22,6
869,17.36,10
876,17.5,3
883,17.64,10
890,17.78,7
897,17.92,10
904,18.06,8
911,18.2,9
918,18.34,10
925,18.48,15
932,18.62,21
939,18.76,12
946,18.9,18
953,19.04,21
960,19.18,17
967,19.32,19
974,19.46,18
981,19.6,7
988,19.74,15
995,19.88,20
1002,20.02,42
1009,20.16,57
1016,20.3,36
1023,20.44,9
1030,20.58,15
1037,20.72,11
1044,20.86,11
1051,21,4
1058,21.14,14
1065,21.28,13
1072,21.42,5
1079,21.56,11
1086,21.7,8
1093,21.84,15
1100,21.98,29
1107,22.12,45
1114,22.26,40
1121,22.4,15
1128,22.54,13
1135,22.68,12
1142,22.82,9
1149,22.96,9
1156,23.1,10
1163,23.24,5
1170,23.38,6
1177,23.52,3
1184,23.66,5
1191,23.8,8
1198,23.94,5
1205,24.08,6
1212,24.22,3
1219,24.36,6
1226,24.5,5
1233,24.64,7
1240,24.78,15
1247,24.92,31
1254,25.06,29
1261,25.2,33
1268,25.34,27
1275,25.48,19
1282,25.62,9
1289,25.76,3
1296,25.9,7
1303,26.04,8
1310,26.18,6
1317,26.32,7
1324,26.46,10
1331,26.6,7
1338,26.74,5
1345,26.88,5
1352,27.02,8
1359,27.16,9
1366,27.3,4
1373,27.44,6
1380,27.58,4
1387,27.72,2
1394,27.86,2
1401,28,3
1408,28.14,9
1415,28.28,8
1422,28.42,4
1429,28.56,4
1436,28.7,9
1443,28.84,5
1450,28.98,3
1457,29.12,9
1464,29.26,4
1471,29.4,10
1478,29.54,3
1485,29.68,4
1492,29.82,2
1499,29.96,3
1506,30.1,3
1513,30.24,6
1520,30.38,3
1527,30.52,1
1534,30.66,2
1541,30.8,2
1548,30.94,3
1555,31.08,2
1562,31.22,2
1569,31.36,6
1576,31.5,7
1583,31.64,5
1590,31.78,2
1597,31.92,2
1604,32.06,6
1611,32.2,6
1618,32.34,4
1625,32.48,5
1632,32.62,5
1639,32.76,3
1646,32.9,4
1653,33.04,4
1660,33.18,4
1667,33.32,6
1674,33.46,5
1681,33.6,5
1688,33.74,5
1695,33.88,2
1702,34.02,4
1709,34.16,0
1716,34.3,1
1723,34.44,5
1730,34.58,2
1737,34.72,1
1744,34.86,1
1751,35,0
1758,35.14,0
1765,35.28,2
1772,35.42,3
1779,35.56,3
1786,35.7,1
1793,35.84,3
1800,35.98,0
1807,36.12,1
1814,36.26,2
1821,36.4,1
1828,36.54,0
1835,36.68,1
1842,36.82,0
1849,36.96,1
1856,37.1,0
1863,37.24,3
1870,37.38,1
1877,37.52,0
1884,37.66,1
1891,37.8,0
1898,37.94,0
1905,38.08,1
1912,38.22,4
1919,38.36,1
1926,38.5,0
1933,38.64,2
1940,38.78,0
1947,38.92,1
1954,39.06,0
1961,39.2,0
1968,39.34,0
1975,39.48,0
1982,39.62,0
1989,39.76,0
1996,39.9,0
2003,40.04,0
2010,40.18,0
2017,40.32,0
2024,40.46,0
2031,40.6,0
2038,40.74,0
2045,40.88,0
2048,40.94,2