File: JAG XRF Scan 1 Head.csv
Bruker AXS HMP Instrument Tools Complete CSV
FileName,C:\Users\skel2534\Desktop\Sydney Grammar\Jack Glass\JAG XRF Scan 1 Head.pdz
SerialString,
TubeTargetElement,45
NumberOfSpectra,1
SampleID,
AcquisitionDateTime,11/05/2021 11:31:55 AM
TotalElapsedTimeInSeconds,182
AnodeTakeOffAngle,53
SampleIncidenceAngle,45
BeThicknessInMicroMeters,75
SampleTakeOffAngle,65
SpotSizeUsed,-1
XrayVoltageInkV,40,
XrayFilamentCurrentInMicroAmps,3.2,
RawCounts,1589896,
ValidCounts,1203340,
eVPerChannel,20,
StartingKeV,0,
ZeroOffsetInKeV,0,
StartingChannel,0,
NumberOfChannels,2048,
CountsPerSecond,8783.956,
XilinxFirmwareVersion,808,
IlluminationID,,
Filter1ElementAtomicNum,22,
Filter1Thickness,25,
Filter2ElementAtomicNum,13,
Filter2Thickness,300,
Filter3ElementAtomicNum,0,
Filter3Thickness,0,
AcquisitionDateTime,11/05/2021 11:31:55 AM,
LiveTimeInSeconds,146.1689,
DeadTimeInSeconds,34.65,
ResetTimeInSeconds,0.8739995,
DetectorTempInC,-40.5,
AmbientTempInF,94.4,
NosePressureInMilliBars,,
NoseTemperatureInC,,
ActiveTimeInSeconds,181,
PacketTimeInSeconds,181.874,
CommunicationTimeInSeconds,0.1260071,
ElapsedClockTimeInSeconds,182,
Spectrum:ChannelNumber,ChannelStartInKeV,ChannelCount
1,0,16
8,0.14,9
15,0.28,2
22,0.42,1
29,0.56,26
36,0.7,55
43,0.84,47
50,0.98,48
57,1.12,61
64,1.26,55
71,1.4,60
78,1.54,50
85,1.68,31
92,1.82,43
99,1.96,39
106,2.1,40
113,2.24,52
120,2.38,94
127,2.52,85
134,2.66,75
141,2.8,37
148,2.94,43
155,3.08,34
162,3.22,38
169,3.36,33
176,3.5,31
183,3.64,29
190,3.78,30
197,3.92,20
204,4.06,15
211,4.2,11
218,4.34,21
225,4.48,21
232,4.62,22
239,4.76,26
246,4.9,28
253,5.04,45
260,5.18,42
267,5.32,29
274,5.46,25
281,5.6,31
288,5.74,31
295,5.88,24
302,6.02,24
309,6.16,91
316,6.3,295
323,6.44,302
330,6.58,99
337,6.72,46
344,6.86,64
351,7,105
358,7.14,86
365,7.28,83
372,7.42,109
379,7.56,155
386,7.7,307
393,7.84,6565
400,7.98,53422
407,8.12,49099
414,8.26,5748
421,8.4,365
428,8.54,257
435,8.68,1044
442,8.82,7551
449,8.96,9467
456,9.1,1682
463,9.24,220
470,9.38,58
477,9.52,21
484,9.66,26
491,9.8,26
498,9.94,27
505,10.08,22
512,10.22,99
519,10.36,910
526,10.5,3795
533,10.64,3016
540,10.78,441
547,10.92,106
554,11.06,782
561,11.2,2206
568,11.34,1156
575,11.48,165
582,11.62,38
589,11.76,62
596,11.9,57
603,12.04,82
610,12.18,230
617,12.32,452
624,12.46,1695
631,12.6,3971
638,12.74,2219
645,12.88,486
652,13.02,221
659,13.16,94
666,13.3,50
673,13.44,43
680,13.58,28
687,13.72,23
694,13.86,34
701,14,32
708,14.14,39
715,14.28,36
722,14.42,44
729,14.56,118
736,14.7,446
743,14.84,395
750,14.98,165
757,15.12,184
764,15.26,128
771,15.4,59
778,15.54,41
785,15.68,54
792,15.82,90
799,15.96,215
806,16.1,387
813,16.24,173
820,16.38,51
827,16.52,44
834,16.66,48
841,16.8,80
848,16.94,143
855,17.08,115
862,17.22,56
869,17.36,38
876,17.5,42
883,17.64,48
890,17.78,50
897,17.92,64
904,18.06,57
911,18.2,48
918,18.34,47
925,18.48,87
932,18.62,122
939,18.76,112
946,18.9,105
953,19.04,123
960,19.18,137
967,19.32,98
974,19.46,105
981,19.6,94
988,19.74,81
995,19.88,119
1002,20.02,214
1009,20.16,296
1016,20.3,198
1023,20.44,81
1030,20.58,70
1037,20.72,78
1044,20.86,66
1051,21,62
1058,21.14,47
1065,21.28,48
1072,21.42,51
1079,21.56,66
1086,21.7,76
1093,21.84,123
1100,21.98,239
1107,22.12,307
1114,22.26,205
1121,22.4,87
1128,22.54,76
1135,22.68,80
1142,22.82,76
1149,22.96,70
1156,23.1,51
1163,23.24,36
1170,23.38,43
1177,23.52,46
1184,23.66,45
1191,23.8,43
1198,23.94,37
1205,24.08,54
1212,24.22,36
1219,24.36,38
1226,24.5,46
1233,24.64,48
1240,24.78,68
1247,24.92,136
1254,25.06,177
1261,25.2,252
1268,25.34,183
1275,25.48,76
1282,25.62,37
1289,25.76,20
1296,25.9,32
1303,26.04,40
1310,26.18,37
1317,26.32,52
1324,26.46,47
1331,26.6,32
1338,26.74,48
1345,26.88,29
1352,27.02,39
1359,27.16,32
1366,27.3,24
1373,27.44,22
1380,27.58,35
1387,27.72,49
1394,27.86,36
1401,28,45
1408,28.14,43
1415,28.28,33
1422,28.42,68
1429,28.56,60
1436,28.7,41
1443,28.84,35
1450,28.98,35
1457,29.12,40
1464,29.26,31
1471,29.4,28
1478,29.54,34
1485,29.68,29
1492,29.82,27
1499,29.96,30
1506,30.1,35
1513,30.24,28
1520,30.38,30
1527,30.52,28
1534,30.66,30
1541,30.8,39
1548,30.94,38
1555,31.08,24
1562,31.22,20
1569,31.36,27
1576,31.5,21
1583,31.64,22
1590,31.78,17
1597,31.92,28
1604,32.06,30
1611,32.2,29
1618,32.34,20
1625,32.48,20
1632,32.62,11
1639,32.76,33
1646,32.9,21
1653,33.04,25
1660,33.18,19
1667,33.32,21
1674,33.46,24
1681,33.6,20
1688,33.74,11
1695,33.88,20
1702,34.02,23
1709,34.16,15
1716,34.3,11
1723,34.44,6
1730,34.58,29
1737,34.72,12
1744,34.86,13
1751,35,9
1758,35.14,12
1765,35.28,12
1772,35.42,10
1779,35.56,14
1786,35.7,11
1793,35.84,12
1800,35.98,13
1807,36.12,5
1814,36.26,12
1821,36.4,6
1828,36.54,7
1835,36.68,12
1842,36.82,10
1849,36.96,6
1856,37.1,8
1863,37.24,6
1870,37.38,8
1877,37.52,2
1884,37.66,8
1891,37.8,2
1898,37.94,4
1905,38.08,3
1912,38.22,4
1919,38.36,3
1926,38.5,5
1933,38.64,0
1940,38.78,4
1947,38.92,1
1954,39.06,1
1961,39.2,1
1968,39.34,0
1975,39.48,0
1982,39.62,1
1989,39.76,1
1996,39.9,0
2003,40.04,1
2010,40.18,1
2017,40.32,0
2024,40.46,0
2031,40.6,0
2038,40.74,0
2045,40.88,0
2048,40.94,0