File: JAG XRF Scan 3 Heads.csv
Bruker AXS HMP Instrument Tools Complete CSV
FileName,C:\Users\skel2534\Desktop\Sydney Grammar\Jack Glass\JAG XRF Scan 3 Heads.pdz
SerialString,
TubeTargetElement,45
NumberOfSpectra,1
SampleID,
AcquisitionDateTime,11/05/2021 11:53:55 AM
TotalElapsedTimeInSeconds,32
AnodeTakeOffAngle,53
SampleIncidenceAngle,45
BeThicknessInMicroMeters,75
SampleTakeOffAngle,65
SpotSizeUsed,-1
XrayVoltageInkV,40,
XrayFilamentCurrentInMicroAmps,3.2,
RawCounts,273549,
ValidCounts,207299,
eVPerChannel,20,
StartingKeV,0,
ZeroOffsetInKeV,0,
StartingChannel,0,
NumberOfChannels,2048,
CountsPerSecond,8824.161,
XilinxFirmwareVersion,808,
IlluminationID,,
Filter1ElementAtomicNum,22,
Filter1Thickness,25,
Filter2ElementAtomicNum,13,
Filter2Thickness,300,
Filter3ElementAtomicNum,0,
Filter3Thickness,0,
AcquisitionDateTime,11/05/2021 11:53:55 AM,
LiveTimeInSeconds,25.005,
DeadTimeInSeconds,5.964,
ResetTimeInSeconds,0.144,
DetectorTempInC,-40.5,
AmbientTempInF,94.4,
NosePressureInMilliBars,,
NoseTemperatureInC,,
ActiveTimeInSeconds,31,
PacketTimeInSeconds,31.144,
CommunicationTimeInSeconds,0.8560009,
ElapsedClockTimeInSeconds,32,
Spectrum:ChannelNumber,ChannelStartInKeV,ChannelCount
1,0,1
8,0.14,0
15,0.28,0
22,0.42,1
29,0.56,3
36,0.7,11
43,0.84,5
50,0.98,8
57,1.12,5
64,1.26,14
71,1.4,7
78,1.54,14
85,1.68,13
92,1.82,12
99,1.96,5
106,2.1,6
113,2.24,4
120,2.38,14
127,2.52,13
134,2.66,11
141,2.8,8
148,2.94,8
155,3.08,3
162,3.22,3
169,3.36,4
176,3.5,10
183,3.64,13
190,3.78,7
197,3.92,3
204,4.06,4
211,4.2,6
218,4.34,5
225,4.48,4
232,4.62,2
239,4.76,3
246,4.9,2
253,5.04,10
260,5.18,7
267,5.32,1
274,5.46,5
281,5.6,2
288,5.74,7
295,5.88,5
302,6.02,5
309,6.16,11
316,6.3,50
323,6.44,26
330,6.58,11
337,6.72,8
344,6.86,10
351,7,17
358,7.14,9
365,7.28,14
372,7.42,28
379,7.56,33
386,7.7,57
393,7.84,1282
400,7.98,10098
407,8.12,9194
414,8.26,1090
421,8.4,62
428,8.54,50
435,8.68,189
442,8.82,1436
449,8.96,1829
456,9.1,324
463,9.24,14
470,9.38,3
477,9.52,2
484,9.66,2
491,9.8,1
498,9.94,3
505,10.08,2
512,10.22,2
519,10.36,69
526,10.5,242
533,10.64,190
540,10.78,25
547,10.92,9
554,11.06,86
561,11.2,207
568,11.34,102
575,11.48,17
582,11.62,12
589,11.76,9
596,11.9,9
603,12.04,9
610,12.18,16
617,12.32,35
624,12.46,100
631,12.6,249
638,12.74,117
645,12.88,25
652,13.02,22
659,13.16,9
666,13.3,8
673,13.44,5
680,13.58,6
687,13.72,2
694,13.86,5
701,14,4
708,14.14,8
715,14.28,5
722,14.42,5
729,14.56,14
736,14.7,31
743,14.84,34
750,14.98,20
757,15.12,12
764,15.26,15
771,15.4,7
778,15.54,8
785,15.68,6
792,15.82,10
799,15.96,53
806,16.1,89
813,16.24,36
820,16.38,6
827,16.52,3
834,16.66,8
841,16.8,22
848,16.94,36
855,17.08,19
862,17.22,11
869,17.36,8
876,17.5,9
883,17.64,8
890,17.78,6
897,17.92,11
904,18.06,11
911,18.2,11
918,18.34,11
925,18.48,17
932,18.62,13
939,18.76,18
946,18.9,23
953,19.04,24
960,19.18,18
967,19.32,27
974,19.46,12
981,19.6,16
988,19.74,11
995,19.88,21
1002,20.02,35
1009,20.16,47
1016,20.3,41
1023,20.44,19
1030,20.58,8
1037,20.72,12
1044,20.86,8
1051,21,9
1058,21.14,9
1065,21.28,13
1072,21.42,8
1079,21.56,9
1086,21.7,8
1093,21.84,21
1100,21.98,55
1107,22.12,54
1114,22.26,37
1121,22.4,17
1128,22.54,9
1135,22.68,18
1142,22.82,22
1149,22.96,11
1156,23.1,5
1163,23.24,8
1170,23.38,6
1177,23.52,5
1184,23.66,11
1191,23.8,10
1198,23.94,10
1205,24.08,6
1212,24.22,8
1219,24.36,5
1226,24.5,2
1233,24.64,18
1240,24.78,25
1247,24.92,38
1254,25.06,43
1261,25.2,50
1268,25.34,50
1275,25.48,21
1282,25.62,7
1289,25.76,6
1296,25.9,3
1303,26.04,12
1310,26.18,7
1317,26.32,14
1324,26.46,4
1331,26.6,4
1338,26.74,9
1345,26.88,6
1352,27.02,7
1359,27.16,6
1366,27.3,7
1373,27.44,3
1380,27.58,6
1387,27.72,6
1394,27.86,2
1401,28,6
1408,28.14,6
1415,28.28,12
1422,28.42,15
1429,28.56,18
1436,28.7,10
1443,28.84,6
1450,28.98,7
1457,29.12,10
1464,29.26,3
1471,29.4,3
1478,29.54,6
1485,29.68,8
1492,29.82,10
1499,29.96,2
1506,30.1,8
1513,30.24,3
1520,30.38,3
1527,30.52,4
1534,30.66,3
1541,30.8,4
1548,30.94,3
1555,31.08,5
1562,31.22,3
1569,31.36,2
1576,31.5,5
1583,31.64,4
1590,31.78,6
1597,31.92,3
1604,32.06,6
1611,32.2,1
1618,32.34,3
1625,32.48,5
1632,32.62,2
1639,32.76,4
1646,32.9,6
1653,33.04,5
1660,33.18,3
1667,33.32,4
1674,33.46,2
1681,33.6,6
1688,33.74,4
1695,33.88,5
1702,34.02,6
1709,34.16,8
1716,34.3,5
1723,34.44,2
1730,34.58,7
1737,34.72,1
1744,34.86,2
1751,35,2
1758,35.14,1
1765,35.28,0
1772,35.42,1
1779,35.56,0
1786,35.7,2
1793,35.84,2
1800,35.98,1
1807,36.12,2
1814,36.26,0
1821,36.4,1
1828,36.54,2
1835,36.68,1
1842,36.82,1
1849,36.96,0
1856,37.1,1
1863,37.24,1
1870,37.38,1
1877,37.52,0
1884,37.66,2
1891,37.8,0
1898,37.94,0
1905,38.08,1
1912,38.22,0
1919,38.36,0
1926,38.5,0
1933,38.64,0
1940,38.78,1
1947,38.92,0
1954,39.06,0
1961,39.2,1
1968,39.34,0
1975,39.48,0
1982,39.62,0
1989,39.76,0
1996,39.9,0
2003,40.04,1
2010,40.18,0
2017,40.32,0
2024,40.46,0
2031,40.6,0
2038,40.74,0
2045,40.88,0
2048,40.94,1