File: JAG XRF Scan 3 Tails.csv
Bruker AXS HMP Instrument Tools Complete CSV
FileName,C:\Users\skel2534\Desktop\Sydney Grammar\Jack Glass\JAG XRF Scan 3 Tails.pdz
SerialString,
TubeTargetElement,45
NumberOfSpectra,1
SampleID,
AcquisitionDateTime,11/05/2021 11:52:53 AM
TotalElapsedTimeInSeconds,31
AnodeTakeOffAngle,53
SampleIncidenceAngle,45
BeThicknessInMicroMeters,75
SampleTakeOffAngle,65
SpotSizeUsed,-1
XrayVoltageInkV,40,
XrayFilamentCurrentInMicroAmps,3.2,
RawCounts,245761,
ValidCounts,189243,
eVPerChannel,20,
StartingKeV,0,
ZeroOffsetInKeV,0,
StartingChannel,0,
NumberOfChannels,2048,
CountsPerSecond,8192.033,
XilinxFirmwareVersion,808,
IlluminationID,,
Filter1ElementAtomicNum,22,
Filter1Thickness,25,
Filter2ElementAtomicNum,13,
Filter2Thickness,300,
Filter3ElementAtomicNum,0,
Filter3Thickness,0,
AcquisitionDateTime,11/05/2021 11:52:53 AM,
LiveTimeInSeconds,24.583,
DeadTimeInSeconds,5.386999,
ResetTimeInSeconds,0.12,
DetectorTempInC,-40.5,
AmbientTempInF,94.4,
NosePressureInMilliBars,,
NoseTemperatureInC,,
ActiveTimeInSeconds,30,
PacketTimeInSeconds,30.12,
CommunicationTimeInSeconds,0.8799992,
ElapsedClockTimeInSeconds,31,
Spectrum:ChannelNumber,ChannelStartInKeV,ChannelCount
1,0,6
8,0.14,2
15,0.28,0
22,0.42,1
29,0.56,2
36,0.7,5
43,0.84,10
50,0.98,12
57,1.12,7
64,1.26,16
71,1.4,15
78,1.54,4
85,1.68,9
92,1.82,7
99,1.96,13
106,2.1,6
113,2.24,12
120,2.38,13
127,2.52,9
134,2.66,12
141,2.8,1
148,2.94,8
155,3.08,3
162,3.22,6
169,3.36,4
176,3.5,6
183,3.64,11
190,3.78,9
197,3.92,5
204,4.06,4
211,4.2,6
218,4.34,2
225,4.48,3
232,4.62,3
239,4.76,3
246,4.9,7
253,5.04,3
260,5.18,4
267,5.32,4
274,5.46,7
281,5.6,7
288,5.74,5
295,5.88,7
302,6.02,2
309,6.16,8
316,6.3,40
323,6.44,21
330,6.58,15
337,6.72,7
344,6.86,10
351,7,10
358,7.14,9
365,7.28,9
372,7.42,17
379,7.56,27
386,7.7,63
393,7.84,1119
400,7.98,8840
407,8.12,8254
414,8.26,932
421,8.4,57
428,8.54,48
435,8.68,183
442,8.82,1302
449,8.96,1663
456,9.1,269
463,9.24,34
470,9.38,8
477,9.52,5
484,9.66,6
491,9.8,0
498,9.94,5
505,10.08,2
512,10.22,8
519,10.36,82
526,10.5,309
533,10.64,264
540,10.78,39
547,10.92,11
554,11.06,105
561,11.2,258
568,11.34,140
575,11.48,19
582,11.62,6
589,11.76,9
596,11.9,4
603,12.04,10
610,12.18,12
617,12.32,44
624,12.46,136
631,12.6,308
638,12.74,179
645,12.88,31
652,13.02,23
659,13.16,8
666,13.3,5
673,13.44,7
680,13.58,6
687,13.72,8
694,13.86,4
701,14,3
708,14.14,8
715,14.28,8
722,14.42,6
729,14.56,6
736,14.7,33
743,14.84,43
750,14.98,9
757,15.12,21
764,15.26,16
771,15.4,5
778,15.54,7
785,15.68,12
792,15.82,12
799,15.96,39
806,16.1,63
813,16.24,34
820,16.38,8
827,16.52,14
834,16.66,9
841,16.8,15
848,16.94,32
855,17.08,22
862,17.22,10
869,17.36,7
876,17.5,4
883,17.64,11
890,17.78,6
897,17.92,9
904,18.06,8
911,18.2,11
918,18.34,9
925,18.48,13
932,18.62,10
939,18.76,12
946,18.9,22
953,19.04,21
960,19.18,18
967,19.32,17
974,19.46,17
981,19.6,10
988,19.74,15
995,19.88,23
1002,20.02,28
1009,20.16,56
1016,20.3,35
1023,20.44,9
1030,20.58,15
1037,20.72,5
1044,20.86,13
1051,21,6
1058,21.14,5
1065,21.28,9
1072,21.42,9
1079,21.56,6
1086,21.7,13
1093,21.84,10
1100,21.98,42
1107,22.12,47
1114,22.26,38
1121,22.4,19
1128,22.54,16
1135,22.68,9
1142,22.82,13
1149,22.96,8
1156,23.1,10
1163,23.24,3
1170,23.38,8
1177,23.52,5
1184,23.66,8
1191,23.8,7
1198,23.94,3
1205,24.08,5
1212,24.22,9
1219,24.36,3
1226,24.5,7
1233,24.64,10
1240,24.78,18
1247,24.92,31
1254,25.06,55
1261,25.2,53
1268,25.34,27
1275,25.48,16
1282,25.62,8
1289,25.76,3
1296,25.9,9
1303,26.04,11
1310,26.18,7
1317,26.32,11
1324,26.46,5
1331,26.6,9
1338,26.74,7
1345,26.88,6
1352,27.02,4
1359,27.16,10
1366,27.3,6
1373,27.44,7
1380,27.58,7
1387,27.72,6
1394,27.86,6
1401,28,5
1408,28.14,6
1415,28.28,6
1422,28.42,10
1429,28.56,9
1436,28.7,9
1443,28.84,5
1450,28.98,6
1457,29.12,5
1464,29.26,8
1471,29.4,4
1478,29.54,3
1485,29.68,10
1492,29.82,6
1499,29.96,4
1506,30.1,8
1513,30.24,8
1520,30.38,4
1527,30.52,6
1534,30.66,5
1541,30.8,2
1548,30.94,6
1555,31.08,5
1562,31.22,5
1569,31.36,5
1576,31.5,2
1583,31.64,3
1590,31.78,1
1597,31.92,1
1604,32.06,2
1611,32.2,7
1618,32.34,4
1625,32.48,4
1632,32.62,3
1639,32.76,3
1646,32.9,6
1653,33.04,4
1660,33.18,0
1667,33.32,4
1674,33.46,5
1681,33.6,6
1688,33.74,6
1695,33.88,6
1702,34.02,2
1709,34.16,2
1716,34.3,6
1723,34.44,2
1730,34.58,3
1737,34.72,1
1744,34.86,1
1751,35,2
1758,35.14,8
1765,35.28,0
1772,35.42,3
1779,35.56,4
1786,35.7,1
1793,35.84,1
1800,35.98,1
1807,36.12,1
1814,36.26,0
1821,36.4,3
1828,36.54,2
1835,36.68,1
1842,36.82,0
1849,36.96,0
1856,37.1,1
1863,37.24,0
1870,37.38,2
1877,37.52,1
1884,37.66,0
1891,37.8,0
1898,37.94,1
1905,38.08,0
1912,38.22,0
1919,38.36,2
1926,38.5,0
1933,38.64,0
1940,38.78,1
1947,38.92,0
1954,39.06,0
1961,39.2,0
1968,39.34,0
1975,39.48,0
1982,39.62,0
1989,39.76,0
1996,39.9,0
2003,40.04,0
2010,40.18,0
2017,40.32,0
2024,40.46,0
2031,40.6,0
2038,40.74,1
2045,40.88,0
2048,40.94,0